#   1 NUMBER                 Running object number                                     
#   2 MAG_ISO                Isophotal magnitude                                        [mag]
#   3 MAGERR_ISO             RMS error for isophotal magnitude                          [mag]
#   4 ALPHA_J2000            Right ascension of barycenter (J2000)                      [deg]
#   5 DELTA_J2000            Declination of barycenter (J2000)                          [deg]
#   6 FWHM_IMAGE             FWHM assuming a gaussian core                              [pixel]
#   7 CLASS_STAR             S/G classifier output                                     
#   8 FLUX_RADIUS            Fraction-of-light radii                                    [pixel]
         1  21.1285   0.0098   0.0000000  +0.0000000    68.04  0.000     15.121
         2  22.1803   0.0117   0.0000000  +0.0000000    21.01  0.000    -14.262
         3  19.7542   0.0014   0.0000000  +0.0000000     4.84  0.051      2.806
         4  22.3750   0.0073   0.0000000  +0.0000000     5.35  0.035      1.586
         5  21.0097   0.0072   0.0000000  +0.0000000    54.13  0.000      6.065
         6  23.3812   0.0240   0.0000000  +0.0000000     6.97  0.000      4.681
         7  20.7255   0.0052   0.0000000  +0.0000000    29.23  0.001      7.673
         8  22.5352   0.0142   0.0000000  +0.0000000    23.87  0.000    -13.282
         9  22.4214   0.0174   0.0000000  +0.0000000    35.84  0.000     10.081
        10  23.2742   0.0262   0.0000000  +0.0000000    27.74  0.000      7.767
        11  24.8350   0.0510   0.0000000  +0.0000000     5.98  0.000      2.913
        12  24.7679   0.0490   0.0000000  +0.0000000     7.24  0.000      2.760
        13  25.6047   0.0808   0.0000000  +0.0000000     6.22  0.000      2.989
        14  23.7742   0.0321   0.0000000  +0.0000000    16.39  0.000      5.022
        15  23.5547   0.0270   0.0000000  +0.0000000    13.88  0.000      5.365
        16  23.3681   0.0252   0.0000000  +0.0000000    18.21  0.000      5.280
        17  25.9398   0.1019   0.0000000  +0.0000000     7.94  0.000      2.422
        18  23.9210   0.0277   0.0000000  +0.0000000     8.67  0.000      2.830
        19  26.8448   0.1588   0.0000000  +0.0000000     5.58  0.000      2.594
        20  23.0912   0.0223   0.0000000  +0.0000000    15.27  0.000      7.396
        21  23.4237   0.0194   0.0000000  +0.0000000     4.91  0.015      2.670
        22  24.9846   0.0518   0.0000000  +0.0000000     5.78  0.000      2.376
        23  22.2614   0.0087   0.0000000  +0.0000000     4.69  0.029      2.728
        24  24.6716   0.0501   0.0000000  +0.0000000     8.78  0.000      3.998
        25  23.4232   0.0269   0.0000000  +0.0000000    13.06  0.000      6.286
        26  23.1920   0.0097   0.0000000  +0.0000000     4.05  0.029      0.951
        27  25.7728   0.0892   0.0000000  +0.0000000     8.20  0.000      5.261
        28  22.8084   0.0165   0.0000000  +0.0000000    21.73  0.000      4.149
        29  24.7618   0.0385   0.0000000  +0.0000000     5.79  0.000      2.039
        30  23.7876   0.0258   0.0000000  +0.0000000     7.50  0.000      2.626
        31  23.0409   0.0076   0.0000000  +0.0000000     4.36  0.459      1.097
        32  25.4877   0.0811   0.0000000  +0.0000000    14.42  0.000     13.799
        33  23.0430   0.0235   0.0000000  +0.0000000    29.80  0.000     -5.746
        34  23.5305   0.0124   0.0000000  +0.0000000     7.25  0.030      0.516
        35  23.6085   0.0126   0.0000000  +0.0000000     6.03  0.029      0.466
        36  24.8653   0.0584   0.0000000  +0.0000000    12.65  0.000      4.193
        37  24.5704   0.0468   0.0000000  +0.0000000    13.49  0.000      3.155
        38  25.6828   0.0853   0.0000000  +0.0000000     8.40  0.000      3.352
        39  24.4516   0.0429   0.0000000  +0.0000000    12.61  0.000      3.514
        40  23.4664   0.0231   0.0000000  +0.0000000    17.09  0.000      3.087
        41  23.0155   0.0197   0.0000000  +0.0000000    20.02  0.000      4.529
        42  23.7245   0.0266   0.0000000  +0.0000000    17.51  0.000    -21.436
        43  22.4986   0.0113   0.0000000  +0.0000000    11.97  0.000      4.221
        44  22.3430   0.0117   0.0000000  +0.0000000    14.07  0.000      4.144
        45  23.5059   0.0250   0.0000000  +0.0000000     9.60  0.000      5.274
        46  24.3551   0.0407   0.0000000  +0.0000000     8.76  0.000      4.475
        47  22.5265   0.0076   0.0000000  +0.0000000     4.76  0.035      2.063
        48  23.5757   0.0271   0.0000000  +0.0000000    10.78  0.000      5.286
        49  24.7861   0.0533   0.0000000  +0.0000000     7.75  0.000      5.598
        50  22.8186   0.0174   0.0000000  +0.0000000    12.73  0.000      5.307
        51  25.4076   0.0732   0.0000000  +0.0000000     7.89  0.000      3.282
        52  25.9801   0.1012   0.0000000  +0.0000000     8.03  0.000      2.732
        53  26.0560   0.1086   0.0000000  +0.0000000     9.92  0.000      6.580
        54  25.0265   0.0615   0.0000000  +0.0000000    10.08  0.000      3.150
        55  21.7341   0.0086   0.0000000  +0.0000000    12.30  0.001      5.689
        56  22.8612   0.0164   0.0000000  +0.0000000     7.66  0.000      4.984
        57  26.1742   0.1095   0.0000000  +0.0000000     6.76  0.000      1.956
        58  24.6188   0.0544   0.0000000  +0.0000000    14.65  0.000      4.802
        59  23.6220   0.0268   0.0000000  +0.0000000    11.27  0.000      4.066
        60  24.4396   0.0509   0.0000000  +0.0000000    14.66  0.000      7.898
        61  24.6863   0.0459   0.0000000  +0.0000000     6.09  0.001      2.526
        62  24.9044   0.0532   0.0000000  +0.0000000     7.99  0.000      2.946
        63  24.6562   0.0526   0.0000000  +0.0000000    12.03  0.000      4.502
        64  24.5545   0.0431   0.0000000  +0.0000000     6.40  0.000      3.618
        65  25.6386   0.0863   0.0000000  +0.0000000     9.20  0.000      3.775
        66  24.2209   0.0438   0.0000000  +0.0000000    16.90  0.000      4.927
        67  23.5826   0.0292   0.0000000  +0.0000000    12.32  0.000      6.757
        68  23.7618   0.0278   0.0000000  +0.0000000     8.40  0.000      3.421
        69  24.9005   0.0587   0.0000000  +0.0000000    11.14  0.000      4.244
        70  20.7283   0.0033   0.0000000  +0.0000000     4.98  0.381      2.890
        71  24.3656   0.0458   0.0000000  +0.0000000    15.68  0.000      5.759
        72  25.9733   0.1029   0.0000000  +0.0000000     8.28  0.000      3.289
        73  25.2227   0.0705   0.0000000  +0.0000000    10.78  0.000      5.031
        74  26.1910   0.1201   0.0000000  +0.0000000     8.13  0.000      3.420
        75  25.0926   0.0653   0.0000000  +0.0000000    11.02  0.000      4.880
        76  26.3717   0.1158   0.0000000  +0.0000000     6.33  0.000      2.910
        77  26.2532   0.1110   0.0000000  +0.0000000     5.56  0.000      1.814
        78  23.4252   0.0198   0.0000000  +0.0000000     8.20  0.000      3.096
        79  21.8008   0.0102   0.0000000  +0.0000000    14.89  0.000      7.178
        80  25.9276   0.1028   0.0000000  +0.0000000     8.48  0.000      2.752
        81  20.6211   0.0060   0.0000000  +0.0000000    35.85  0.000      8.032
        82  23.9954   0.0382   0.0000000  +0.0000000    18.71  0.000     13.100
        83  24.0984   0.0337   0.0000000  +0.0000000     6.94  0.000      3.072
        84  24.8897   0.0548   0.0000000  +0.0000000     7.39  0.000      6.296
        85  23.3706   0.0246   0.0000000  +0.0000000    14.91  0.000      7.043
        86  24.1047   0.0429   0.0000000  +0.0000000    22.86  0.000      6.126
        87  24.0894   0.0384   0.0000000  +0.0000000    13.21  0.000     11.328
        88  20.7085   0.0070   0.0000000  +0.0000000    43.96  0.000    -36.302
        89  20.8408   0.0033   0.0000000  +0.0000000     5.46  0.044      3.049
        90  26.9268   0.1632   0.0000000  +0.0000000     5.22  0.000      5.284
        91  20.2585   0.0020   0.0000000  +0.0000000     4.70  0.147      2.762
        92  25.5602   0.0803   0.0000000  +0.0000000     8.99  0.000      2.862
        93  21.4741   0.0024   0.0000000  +0.0000000     5.28  0.065      1.152
        94  21.4863   0.0024   0.0000000  +0.0000000     5.30  0.790      1.083
        95  24.8528   0.0530   0.0000000  +0.0000000     6.72  0.000      2.980
        96  25.9122   0.1014   0.0000000  +0.0000000     8.69  0.001      7.596
        97  24.1006   0.0388   0.0000000  +0.0000000    13.63  0.000      4.377
        98  26.2660   0.1158   0.0000000  +0.0000000     6.50  0.000      2.662
        99  23.1214   0.0160   0.0000000  +0.0000000     4.78  0.025      2.751
       100  21.7930   0.0098   0.0000000  +0.0000000    11.88  0.000      6.694
       101  22.2806   0.0148   0.0000000  +0.0000000    26.93  0.000      3.461
       102  22.2594   0.0140   0.0000000  +0.0000000    27.16  0.000      3.214
       103  23.8347   0.0344   0.0000000  +0.0000000    20.26  0.000      3.322
       104  24.9287   0.0550   0.0000000  +0.0000000     8.38  0.000      2.872
       105  23.4680   0.0263   0.0000000  +0.0000000    12.72  0.000      4.886
       106  24.5756   0.0506   0.0000000  +0.0000000    10.36  0.000      9.471
       107  25.1073   0.0619   0.0000000  +0.0000000     8.43  0.000      2.933
       108  23.1505   0.0076   0.0000000  +0.0000000     3.74  0.045      0.779
       109  23.4260   0.0087   0.0000000  +0.0000000     3.37  0.461      0.602
       110  24.6477   0.0469   0.0000000  +0.0000000     7.72  0.000      3.677
       111  23.9470   0.0315   0.0000000  +0.0000000     7.74  0.000      4.469
       112  18.7586   0.0015   0.0000000  +0.0000000    11.47  0.031      9.404
       113  20.1450   0.0066   0.0000000  +0.0000000   161.49  0.000     79.955
       114  21.9186   0.0064   0.0000000  +0.0000000     7.99  0.040      2.775
       115  22.1706   0.0106   0.0000000  +0.0000000     9.16  0.001      4.594
       116  20.5387   0.0028   0.0000000  +0.0000000     4.75  0.051      2.815
       117  24.7853   0.0476   0.0000000  +0.0000000     5.69  0.000      2.505
       118  21.6396   0.0128   0.0000000  +0.0000000    63.67  0.000     16.373
       119  25.5461   0.0752   0.0000000  +0.0000000     5.82  0.000      2.798
       120  25.2341   0.0704   0.0000000  +0.0000000    10.57  0.000      3.983
       121  23.7525   0.0356   0.0000000  +0.0000000    15.52  0.000     13.819
       122  23.8415   0.0316   0.0000000  +0.0000000    10.72  0.000      3.994
       123  21.5778   0.0052   0.0000000  +0.0000000     5.32  0.034      2.319
       124  25.3384   0.0707   0.0000000  +0.0000000     9.79  0.000      2.852
       125  21.4049   0.0112   0.0000000  +0.0000000    54.37  0.000     12.067
       126  21.7154   0.0135   0.0000000  +0.0000000    51.15  0.000     27.172
       127  21.4009   0.0096   0.0000000  +0.0000000     8.75  0.001     25.770
       128  20.8182   0.0022   0.0000000  +0.0000000     8.93  0.781      3.525
       129  24.3405   0.0486   0.0000000  +0.0000000    10.02  0.000      9.839
       130  21.6919   0.0097   0.0000000  +0.0000000    21.56  0.000      7.428
       131  25.9913   0.0925   0.0000000  +0.0000000     6.70  0.000      2.354
       132  26.0498   0.1080   0.0000000  +0.0000000     8.06  0.000      3.771
       133  26.3758   0.1281   0.0000000  +0.0000000     7.02  0.001      7.002
       134  25.6934   0.0829   0.0000000  +0.0000000     6.90  0.000      2.292
       135  24.9942   0.0571   0.0000000  +0.0000000     7.12  0.000      4.917
       136  19.4478   0.0030   0.0000000  +0.0000000     4.95  0.032      5.275
       137  22.1842   0.0106   0.0000000  +0.0000000     9.87  0.001      4.788
       138  22.3871   0.0126   0.0000000  +0.0000000     9.60  0.000      4.849
       139  22.7959   0.0196   0.0000000  +0.0000000    13.22  0.000     10.928
       140  25.5502   0.0769   0.0000000  +0.0000000     5.91  0.000      2.254
       141  25.1671   0.0722   0.0000000  +0.0000000    14.18  0.000      8.498
       142  24.9145   0.0572   0.0000000  +0.0000000     7.24  0.000      3.094
       143  24.9835   0.0591   0.0000000  +0.0000000    11.03  0.000      9.433
       144  25.9646   0.0998   0.0000000  +0.0000000     7.83  0.000      4.723
       145  26.2625   0.1154   0.0000000  +0.0000000     6.69  0.000      4.855
       146  24.1249   0.0369   0.0000000  +0.0000000    10.25  0.000      6.050
       147  21.5512   0.0078   0.0000000  +0.0000000     9.48  0.001      5.595
       148  25.6003   0.0819   0.0000000  +0.0000000     9.39  0.000      4.716
       149  25.6387   0.0788   0.0000000  +0.0000000     8.06  0.000      2.255
       150  26.2541   0.1242   0.0000000  +0.0000000     7.66  0.000      5.262
       151  24.7747   0.0616   0.0000000  +0.0000000    19.70  0.000     18.572
       152  23.6761   0.0353   0.0000000  +0.0000000    22.51  0.000     19.677
       153  24.6433   0.0467   0.0000000  +0.0000000     6.97  0.000      5.274
       154  25.1507   0.0628   0.0000000  +0.0000000     9.97  0.000      3.045
       155  24.0087   0.0421   0.0000000  +0.0000000    19.21  0.000     16.933
       156  23.9200   0.0298   0.0000000  +0.0000000     8.61  0.000      3.400
       157  24.8598   0.0634   0.0000000  +0.0000000    11.68  0.000     10.998
       158  23.9904   0.0406   0.0000000  +0.0000000    20.50  0.000     12.177
       159  22.3764   0.0187   0.0000000  +0.0000000    42.50  0.000     19.245
       160  23.6497   0.0333   0.0000000  +0.0000000    24.43  0.000     18.903
       161  22.4030   0.0164   0.0000000  +0.0000000    24.95  0.000      5.186
       162  26.0535   0.1058   0.0000000  +0.0000000     7.66  0.000      5.506
       163  25.3416   0.0768   0.0000000  +0.0000000    12.86  0.000     12.552
       164  25.1065   0.0703   0.0000000  +0.0000000    14.16  0.000     14.082
       165  24.1323   0.0454   0.0000000  +0.0000000    18.78  0.000     15.421
       166  26.1413   0.1174   0.0000000  +0.0000000     9.84  0.000      8.719
       167  25.5850   0.0794   0.0000000  +0.0000000     8.58  0.000      5.330
       168  23.0993   0.0222   0.0000000  +0.0000000    18.59  0.000      4.928
       169  24.7949   0.0452   0.0000000  +0.0000000     6.04  0.000      2.414
       170  24.1027   0.0355   0.0000000  +0.0000000     7.49  0.000      4.463
       171  23.0918   0.0202   0.0000000  +0.0000000    12.56  0.000      5.131
       172  24.8520   0.0634   0.0000000  +0.0000000    10.21  0.000      6.835
       173  22.3842   0.0175   0.0000000  +0.0000000    38.27  0.000      8.951
       174  25.8267   0.0992   0.0000000  +0.0000000    10.09  0.000     10.438
       175  25.2485   0.0713   0.0000000  +0.0000000    10.83  0.000      7.830
       176  22.8186   0.0081   0.0000000  +0.0000000     5.14  0.029      0.880
       177  22.8580   0.0075   0.0000000  +0.0000000     5.69  0.033      0.656
       178  23.5222   0.0271   0.0000000  +0.0000000    13.79  0.000     12.248
       179  24.0957   0.0369   0.0000000  +0.0000000    12.42  0.000      7.612
       180  25.5104   0.0840   0.0000000  +0.0000000    11.63  0.000     11.404
       181  24.4347   0.0389   0.0000000  +0.0000000     6.61  0.000      2.611
       182  23.2750   0.0301   0.0000000  +0.0000000    25.31  0.000     20.259
       183  22.8630   0.0178   0.0000000  +0.0000000    16.37  0.000      4.609
       184  24.2739   0.0416   0.0000000  +0.0000000    10.55  0.000      5.964
       185  26.0068   0.1061   0.0000000  +0.0000000     7.90  0.000      6.960
       186  26.2981   0.1157   0.0000000  +0.0000000     6.53  0.000      4.183
       187  25.6418   0.0851   0.0000000  +0.0000000     7.70  0.000      5.466
       188  25.4379   0.0786   0.0000000  +0.0000000     8.24  0.000      7.368
       189  23.3565   0.0227   0.0000000  +0.0000000    12.23  0.000      2.690
       190  22.3140   0.0178   0.0000000  +0.0000000    46.62  0.000      3.571
       191  24.9783   0.0675   0.0000000  +0.0000000    13.42  0.000     13.879
       192  25.8103   0.0959   0.0000000  +0.0000000     9.16  0.000      9.151
       193  24.9208   0.0570   0.0000000  +0.0000000    11.15  0.000      3.136
       194  25.6801   0.0819   0.0000000  +0.0000000     7.94  0.000      2.220
       195  25.8821   0.0904   0.0000000  +0.0000000     9.18  0.000      2.083
       196  22.6541   0.0135   0.0000000  +0.0000000     9.85  0.000      5.020
       197  21.8900   0.0086   0.0000000  +0.0000000     6.91  0.043      4.061
       198  24.4371   0.0480   0.0000000  +0.0000000    11.81  0.000      3.588
       199  23.2909   0.0248   0.0000000  +0.0000000    25.69  0.000      1.923
       200  22.9881   0.0246   0.0000000  +0.0000000    30.92  0.000      8.207
       201  23.2979   0.0233   0.0000000  +0.0000000    15.86  0.000      4.571
       202  25.5987   0.0886   0.0000000  +0.0000000     8.08  0.000      7.220
       203  25.9607   0.1039   0.0000000  +0.0000000     8.18  0.000      2.902
       204  26.4736   0.1272   0.0000000  +0.0000000     5.97  0.000      4.825
       205  26.0592   0.1089   0.0000000  +0.0000000     7.43  0.000      7.284
       206  25.9329   0.1012   0.0000000  +0.0000000     9.06  0.000      6.314
       207  21.3310   0.0054   0.0000000  +0.0000000    27.83  0.002   -140.261
       208  20.9839   0.0042   0.0000000  +0.0000000    23.03  0.025   -127.335
       209  26.6720   0.1414   0.0000000  +0.0000000     6.76  0.000      2.992
       210  25.3638   0.0812   0.0000000  +0.0000000    11.05  0.000     10.517
       211  26.4272   0.1303   0.0000000  +0.0000000     6.41  0.000      5.616
       212  22.8655   0.0080   0.0000000  +0.0000000     4.90  0.030      0.827
       213  22.7623   0.0072   0.0000000  +0.0000000     5.11  0.069      0.933
       214  23.9452   0.0392   0.0000000  +0.0000000    15.94  0.000      8.087
       215  23.0598   0.0254   0.0000000  +0.0000000    22.30  0.000     15.302
       216  22.2968   0.0103   0.0000000  +0.0000000     4.66  0.039      3.501
       217  22.9498   0.0172   0.0000000  +0.0000000     4.89  0.002      5.405
       218  25.2535   0.0725   0.0000000  +0.0000000     9.43  0.000      2.833
       219  25.8730   0.0917   0.0000000  +0.0000000     7.73  0.000      2.829
       220  23.6362   0.0305   0.0000000  +0.0000000    18.30  0.000    -93.790
       221  23.5496   0.0238   0.0000000  +0.0000000     7.47  0.000      3.087
       222  26.2035   0.1186   0.0000000  +0.0000000     8.26  0.000      7.478
       223  22.8149   0.0122   0.0000000  +0.0000000     4.55  0.028      2.523
       224  25.8112   0.0942   0.0000000  +0.0000000     7.77  0.000      2.609
       225  23.3812   0.0242   0.0000000  +0.0000000    10.87  0.000      4.465
       226  25.5137   0.0716   0.0000000  +0.0000000     6.81  0.000      2.226
       227  24.0466   0.0380   0.0000000  +0.0000000    13.81  0.000      4.482
       228  21.9625   0.0125   0.0000000  +0.0000000    28.15  0.000      7.351
       229  24.9481   0.0547   0.0000000  +0.0000000    10.16  0.000      2.681
       230  24.4363   0.0442   0.0000000  +0.0000000    10.51  0.000      3.294
       231  22.8293   0.0204   0.0000000  +0.0000000    16.85  0.000      8.722
       232  23.7460   0.0338   0.0000000  +0.0000000    18.84  0.000     12.773
       233  23.5781   0.0321   0.0000000  +0.0000000    23.24  0.000      6.848
       234  22.5036   0.0164   0.0000000  +0.0000000    40.67  0.000    -81.299
       235  21.0140   0.0074   0.0000000  +0.0000000    22.87  0.000      5.709
       236  24.7089   0.0464   0.0000000  +0.0000000     7.26  0.000      2.578
       237  24.5636   0.0476   0.0000000  +0.0000000     7.62  0.000      3.771
       238  26.1217   0.1153   0.0000000  +0.0000000     8.72  0.000      3.256
       239  23.3874   0.0214   0.0000000  +0.0000000     5.48  0.001      3.656
       240  22.2996   0.0150   0.0000000  +0.0000000    15.57  0.000      9.194
       241  22.7952   0.0062   0.0000000  +0.0000000     3.99  0.030      0.744
       242  22.5732   0.0050   0.0000000  +0.0000000     4.32  0.407      0.732
       243  25.8765   0.0877   0.0000000  +0.0000000     7.09  0.000      2.744
       244  22.6332   0.0145   0.0000000  +0.0000000    12.02  0.000      4.685
       245  25.0839   0.0575   0.0000000  +0.0000000     6.55  0.000      2.789
       246  24.1078   0.0329   0.0000000  +0.0000000    13.46  0.000      2.385
       247  23.9128   0.0273   0.0000000  +0.0000000     5.84  0.000      2.734
       248  26.0993   0.1050   0.0000000  +0.0000000     7.65  0.000      3.605
       249  26.3256   0.1149   0.0000000  +0.0000000     6.33  0.000      4.447
       250  26.3541   0.1140   0.0000000  +0.0000000     6.00  0.000      1.669
       251  24.4049   0.0501   0.0000000  +0.0000000    17.35  0.000     14.780
       252  26.2235   0.1046   0.0000000  +0.0000000     6.08  0.000      1.763
       253  25.7920   0.0889   0.0000000  +0.0000000     7.76  0.000      2.893
       254  23.8068   0.0384   0.0000000  +0.0000000    26.51  0.000     22.209
       255  22.8989   0.0252   0.0000000  +0.0000000    31.20  0.000     26.428
       256  25.7342   0.1004   0.0000000  +0.0000000    11.07  0.000     11.317
       257  25.2504   0.0756   0.0000000  +0.0000000    12.35  0.000      8.711
       258  24.7160   0.0587   0.0000000  +0.0000000    17.36  0.000     16.942
       259  24.4891   0.0530   0.0000000  +0.0000000    15.22  0.000      5.610
       260  24.4101   0.0471   0.0000000  +0.0000000    13.95  0.000      9.417
       261  24.0089   0.0419   0.0000000  +0.0000000    20.41  0.000     18.026
       262  24.3992   0.0406   0.0000000  +0.0000000     5.69  0.000      2.857
       263  24.6546   0.0573   0.0000000  +0.0000000    13.28  0.000     12.890
       264  22.3059   0.0154   0.0000000  +0.0000000    17.73  0.000     12.674
       265  22.7826   0.0178   0.0000000  +0.0000000    12.81  0.000      6.053
       266  26.7624   0.1403   0.0000000  +0.0000000     3.82  0.001      3.100
       267  26.9169   0.1697   0.0000000  +0.0000000     6.45  0.000      2.781
       268  25.6461   0.0869   0.0000000  +0.0000000     9.08  0.000      2.923
       269  24.7205   0.0464   0.0000000  +0.0000000     6.03  0.000      2.554
       270  24.4251   0.0505   0.0000000  +0.0000000    12.92  0.000     10.690
       271  24.8757   0.0512   0.0000000  +0.0000000     5.87  0.000      2.551
       272  24.4412   0.0441   0.0000000  +0.0000000     8.10  0.000      4.038
       273  23.9232   0.0320   0.0000000  +0.0000000     9.01  0.000      3.613
       274  26.6046   0.1273   0.0000000  +0.0000000     5.60  0.000      3.538
       275  25.7307   0.0858   0.0000000  +0.0000000     5.23  0.000      2.230
       276  24.6102   0.0504   0.0000000  +0.0000000    13.56  0.000      6.054
       277  25.5699   0.0783   0.0000000  +0.0000000     8.59  0.000      6.367
       278  21.0084   0.0035   0.0000000  +0.0000000     4.82  0.039      2.772
       279  24.4985   0.0427   0.0000000  +0.0000000     7.18  0.000      3.203
       280  23.5448   0.0235   0.0000000  +0.0000000     8.77  0.000      3.333
       281  26.7575   0.1530   0.0000000  +0.0000000     6.21  0.000      2.452
       282  26.2606   0.1118   0.0000000  +0.0000000     6.66  0.000      5.445
       283  25.7804   0.0933   0.0000000  +0.0000000     8.43  0.000      3.176
       284  25.2443   0.0658   0.0000000  +0.0000000     7.12  0.000      2.604
       285  23.6708   0.0349   0.0000000  +0.0000000    31.22  0.000     28.979
       286  23.5552   0.0306   0.0000000  +0.0000000    26.73  0.000      9.770
       287  24.3793   0.0419   0.0000000  +0.0000000    12.65  0.000      3.673
       288  26.5275   0.1288   0.0000000  +0.0000000     5.88  0.000      1.853
       289  26.8415   0.1509   0.0000000  +0.0000000     4.70  0.002      3.468
       290  24.0743   0.0400   0.0000000  +0.0000000    20.03  0.000     18.307
       291  24.7331   0.0564   0.0000000  +0.0000000    16.46  0.000     22.065
       292  20.4040   0.0023   0.0000000  +0.0000000     4.65  0.040      2.741
       293  24.4047   0.0480   0.0000000  +0.0000000    18.45  0.000     10.148
       294  20.8044   0.0029   0.0000000  +0.0000000     4.72  0.133      2.709
       295  26.1432   0.1093   0.0000000  +0.0000000     7.45  0.000      5.682
       296  22.9138   0.0188   0.0000000  +0.0000000    21.04  0.000      5.911
       297  23.2724   0.0194   0.0000000  +0.0000000     7.42  0.000      3.409
       298  23.8792   0.0340   0.0000000  +0.0000000    12.38  0.000      8.618
       299  25.3638   0.0793   0.0000000  +0.0000000    11.51  0.000      4.094
       300  26.4641   0.1348   0.0000000  +0.0000000     7.19  0.000      3.336
       301  21.0173   0.0025   0.0000000  +0.0000000    10.24  0.033      2.283
       302  20.7985   0.0021   0.0000000  +0.0000000     9.67  0.036      4.321
       303  25.7640   0.0936   0.0000000  +0.0000000     6.98  0.000      7.023
       304  24.8336   0.0572   0.0000000  +0.0000000    12.73  0.000      3.101
       305  23.4924   0.0325   0.0000000  +0.0000000    27.01  0.000     11.826
       306  23.0294   0.0252   0.0000000  +0.0000000    36.85  0.000     20.321
       307  22.0569   0.0163   0.0000000  +0.0000000    51.90  0.000     20.483
       308  22.0280   0.0115   0.0000000  +0.0000000    13.76  0.000     10.557
       309  23.3626   0.0318   0.0000000  +0.0000000    25.78  0.000     14.584
       310  23.4790   0.0296   0.0000000  +0.0000000    22.47  0.000      7.166
       311  23.2240   0.0298   0.0000000  +0.0000000    34.84  0.000     19.322
       312  24.2115   0.0336   0.0000000  +0.0000000     6.40  0.000      2.675
       313  24.7140   0.0517   0.0000000  +0.0000000    11.40  0.000      5.405
       314  27.0551   0.1837   0.0000000  +0.0000000     6.49  0.000      6.747
       315  23.3967   0.0237   0.0000000  +0.0000000     9.50  0.000      3.922
       316  24.2602   0.0304   0.0000000  +0.0000000     6.89  0.017      0.733
       317  25.9724   0.1050   0.0000000  +0.0000000     7.26  0.005      2.576
       318  25.2364   0.0644   0.0000000  +0.0000000     6.66  0.000      2.505
       319  24.0391   0.0335   0.0000000  +0.0000000     9.06  0.000      4.664
       320  24.5407   0.0349   0.0000000  +0.0000000     7.85  0.001      1.103
       321  23.6119   0.0229   0.0000000  +0.0000000    10.11  0.000      5.193
       322  26.8342   0.1499   0.0000000  +0.0000000     4.59  0.000      1.829
       323  25.2549   0.0726   0.0000000  +0.0000000    12.20  0.000     12.813
       324  25.5308   0.0868   0.0000000  +0.0000000     9.63  0.000      9.580
       325  24.1765   0.0420   0.0000000  +0.0000000    11.60  0.000      8.376
       326  25.9203   0.0980   0.0000000  +0.0000000     8.15  0.000      4.488
       327  25.1193   0.0718   0.0000000  +0.0000000    11.15  0.000     10.911
       328  24.1871   0.0341   0.0000000  +0.0000000     6.15  0.000      3.258
       329  21.3851   0.0048   0.0000000  +0.0000000     4.64  0.051      2.740
       330  24.8765   0.0615   0.0000000  +0.0000000    14.54  0.000      6.252
       331  23.4818   0.0318   0.0000000  +0.0000000    21.14  0.000     13.467
       332  26.3027   0.1198   0.0000000  +0.0000000     6.77  0.000      2.973
       333  26.8615   0.1612   0.0000000  +0.0000000     4.47  0.001      2.723
       334  26.1426   0.1121   0.0000000  +0.0000000     5.79  0.000      5.780
       335  24.4724   0.0522   0.0000000  +0.0000000    13.27  0.000     12.865
       336  24.5906   0.0424   0.0000000  +0.0000000     5.66  0.000      2.632
       337  26.4521   0.1291   0.0000000  +0.0000000     5.48  0.001      2.261
       338  25.5612   0.0777   0.0000000  +0.0000000     8.42  0.000      5.438
       339  24.1673   0.0347   0.0000000  +0.0000000     6.94  0.000      3.499
       340  23.1009   0.0235   0.0000000  +0.0000000    19.04  0.000      8.130
       341  26.1008   0.1105   0.0000000  +0.0000000     8.42  0.000      5.015
       342  26.1202   0.1013   0.0000000  +0.0000000     6.51  0.000      2.331
       343  24.2334   0.0384   0.0000000  +0.0000000    12.91  0.000      3.578
       344  25.4060   0.0763   0.0000000  +0.0000000     9.52  0.000      2.834
       345  24.0758   0.0413   0.0000000  +0.0000000    19.45  0.000      3.412
       346  25.5126   0.0806   0.0000000  +0.0000000     9.22  0.000      5.804
       347  24.3044   0.0265   0.0000000  +0.0000000     6.14  0.077      0.646
       348  25.1471   0.0413   0.0000000  +0.0000000     3.87  0.671      0.982
       349  25.8445   0.0971   0.0000000  +0.0000000     8.61  0.000      2.695
       350  26.7752   0.1489   0.0000000  +0.0000000     6.39  0.000      4.142
       351  25.2958   0.0727   0.0000000  +0.0000000    11.34  0.000      2.670
       352  22.5663   0.0189   0.0000000  +0.0000000    37.23  0.000      4.988
       353  21.6645   0.0124   0.0000000  +0.0000000    47.85  0.000     18.288
       354  23.7115   0.0240   0.0000000  +0.0000000     4.99  0.001      2.918
       355  26.4296   0.1177   0.0000000  +0.0000000     6.00  0.000      2.398
       356  25.4994   0.0759   0.0000000  +0.0000000     8.70  0.000      2.323
       357  25.3316   0.0661   0.0000000  +0.0000000     5.82  0.000      2.851
       358  20.8629   0.0033   0.0000000  +0.0000000     4.72  0.046      2.757
       359  24.5239   0.0492   0.0000000  +0.0000000    12.89  0.000      3.983
       360  23.5241   0.0115   0.0000000  +0.0000000     5.80  0.031      0.357
       361  25.1050   0.0554   0.0000000  +0.0000000     6.81  0.000      2.874
       362  23.8612   0.0144   0.0000000  +0.0000000     4.12  0.054      0.445
       363  26.6210   0.1404   0.0000000  +0.0000000     5.58  0.000      4.323
       364  24.0677   0.0416   0.0000000  +0.0000000    16.88  0.000      8.980
       365  22.5772   0.0112   0.0000000  +0.0000000     4.57  0.029      2.749
       366  23.8907   0.0333   0.0000000  +0.0000000     8.85  0.000      4.177
       367  22.9396   0.0171   0.0000000  +0.0000000    10.35  0.000      4.232
       368  24.1178   0.0354   0.0000000  +0.0000000    16.64  0.000      9.782
       369  24.7628   0.0540   0.0000000  +0.0000000    13.01  0.000      8.612
       370  26.3523   0.1254   0.0000000  +0.0000000     7.44  0.000      4.655
       371  24.3287   0.0389   0.0000000  +0.0000000    14.06  0.000      5.814
       372  22.2142   0.0097   0.0000000  +0.0000000     5.88  0.031      3.333
       373  25.9536   0.1010   0.0000000  +0.0000000     8.64  0.000      3.883
       374  26.0965   0.1047   0.0000000  +0.0000000     8.27  0.000      4.639
       375  26.1396   0.1061   0.0000000  +0.0000000     7.59  0.000      4.290
       376  23.2165   0.0226   0.0000000  +0.0000000    10.50  0.000      4.991
       377  23.6794   0.0314   0.0000000  +0.0000000    13.24  0.000      6.295
       378  25.6954   0.0879   0.0000000  +0.0000000     8.95  0.000      2.689
       379  23.5716   0.0271   0.0000000  +0.0000000    10.04  0.000      7.183
       380  22.4037   0.0136   0.0000000  +0.0000000    10.13  0.000      5.272
       381  26.6805   0.1365   0.0000000  +0.0000000     5.23  0.000      2.948
       382  26.1650   0.1086   0.0000000  +0.0000000     6.22  0.000      3.835
       383  20.9286   0.0034   0.0000000  +0.0000000     4.78  0.047      2.746
       384  26.4276   0.1175   0.0000000  +0.0000000     6.05  0.000      2.260
       385  25.2790   0.0751   0.0000000  +0.0000000    11.01  0.000      5.875
       386  20.1911   0.0019   0.0000000  +0.0000000     4.70  0.051      2.739
       387  25.3052   0.0705   0.0000000  +0.0000000    10.25  0.000      3.645
       388  24.7117   0.0479   0.0000000  +0.0000000    11.63  0.000      7.145
       389  22.7549   0.0148   0.0000000  +0.0000000     8.71  0.000      4.076
       390  25.7346   0.0861   0.0000000  +0.0000000     8.24  0.000      2.420
       391  22.0014   0.0068   0.0000000  +0.0000000     4.65  0.030      2.653
       392  26.9646   0.1690   0.0000000  +0.0000000     5.37  0.005      2.336
       393  25.2760   0.0648   0.0000000  +0.0000000     7.56  0.000      2.900
       394  22.0435   0.0100   0.0000000  +0.0000000     7.73  0.001      4.710
       395  25.4724   0.0823   0.0000000  +0.0000000    10.31  0.000      6.726
       396  25.8095   0.0976   0.0000000  +0.0000000     9.11  0.000      3.107
       397  25.4123   0.0735   0.0000000  +0.0000000     6.71  0.000      3.179
       398  25.3391   0.0687   0.0000000  +0.0000000     5.28  0.000      2.935
       399  22.8482   0.0126   0.0000000  +0.0000000     4.56  0.036      2.538
       400  24.8737   0.0540   0.0000000  +0.0000000     8.16  0.000      3.086
       401  23.5653   0.0243   0.0000000  +0.0000000     7.31  0.000      3.422
       402  26.3030   0.1233   0.0000000  +0.0000000     7.11  0.000      5.049
       403  25.8909   0.0954   0.0000000  +0.0000000     5.76  0.000      2.565
       404  22.3227   0.0077   0.0000000  +0.0000000     6.23  0.044      1.451
       405  26.9015   0.1595   0.0000000  +0.0000000     5.95  0.000      1.840
       406  24.1469   0.0389   0.0000000  +0.0000000    11.65  0.000      4.162
       407  23.9055   0.0305   0.0000000  +0.0000000     7.23  0.000      3.520
       408  23.0713   0.0191   0.0000000  +0.0000000     9.83  0.000      3.474
       409  24.7009   0.0436   0.0000000  +0.0000000     5.18  0.000      2.267
       410  25.6995   0.0866   0.0000000  +0.0000000     8.65  0.000      3.225
       411  23.7731   0.0240   0.0000000  +0.0000000     5.12  0.001      2.493
       412  26.1252   0.1075   0.0000000  +0.0000000     7.38  0.000      2.414
       413  24.8309   0.0580   0.0000000  +0.0000000    11.57  0.000      3.567
       414  24.6054   0.0561   0.0000000  +0.0000000    16.35  0.000      7.608
       415  24.7418   0.0493   0.0000000  +0.0000000     8.55  0.000      3.313
       416  22.7372   0.0182   0.0000000  +0.0000000    13.83  0.000      6.765
       417  22.1004   0.0046   0.0000000  +0.0000000     6.10  0.029      1.125
       418  22.1628   0.0046   0.0000000  +0.0000000     5.64  0.048      1.085
       419  24.1851   0.0323   0.0000000  +0.0000000     5.39  0.000      2.621
       420  26.3186   0.1216   0.0000000  +0.0000000     7.10  0.002      2.375
       421  26.2041   0.1126   0.0000000  +0.0000000     7.48  0.000      2.862
       422  24.6608   0.0448   0.0000000  +0.0000000     6.62  0.000      2.667
       423  23.5339   0.0267   0.0000000  +0.0000000    10.17  0.000      4.936
       424  26.1965   0.1020   0.0000000  +0.0000000     6.19  0.000      3.479
       425  25.6259   0.0908   0.0000000  +0.0000000     8.73  0.000      4.004
       426  25.9035   0.0943   0.0000000  +0.0000000     5.14  0.000      2.875
       427  25.9626   0.0950   0.0000000  +0.0000000     6.70  0.000      3.994
       428  24.7900   0.0540   0.0000000  +0.0000000     9.01  0.000      5.909
       429  23.0977   0.0228   0.0000000  +0.0000000    14.91  0.000      6.788
       430  22.1575   0.0165   0.0000000  +0.0000000    48.53  0.000     15.243
       431  21.8335   0.0143   0.0000000  +0.0000000    64.99  0.000      7.359
       432  26.0119   0.1043   0.0000000  +0.0000000     7.77  0.000      4.281
       433  23.7126   0.0306   0.0000000  +0.0000000    13.60  0.000      3.005
       434  26.1785   0.1037   0.0000000  +0.0000000     6.44  0.000      1.830
       435  24.0964   0.0305   0.0000000  +0.0000000     5.95  0.000      2.475
       436  25.7237   0.0835   0.0000000  +0.0000000     8.20  0.000      4.919
