#   1 NUMBER          Running object number
#   2 FLUX_APER       Flux vector within fixed circular aperture(s)   [count]
#   3 FLUXERR_APER    RMS error vector for aperture flux(es)          [count]
#   4 ALPHA_J2000     Right ascension of barycenter (J2000)           [deg]
#   5 DELTA_J2000     Declination of barycenter (J2000)               [deg]
#   6 MAG_APER        Fixed aperture magnitude vector                 [mag]
#   7 FLUX_RADIUS     Fraction-of-light radii                         [pixel]
         1      149.888      3.56664   0.0000000  +0.0000000  24.5606     15.873
         2      69.4758      3.55571   0.0000000  +0.0000000  25.3954     15.543
         3      5326.25      3.55936   0.0000000  +0.0000000  20.6839      2.802
         4      160.207        3.563   0.0000000  +0.0000000  24.4883      6.090
         5      150.769      3.57028   0.0000000  +0.0000000  24.5542     -7.103
         6      233.697      3.57392   0.0000000  +0.0000000  24.0784      6.819
         7      147.599      3.57392   0.0000000  +0.0000000  24.5773    -46.750
         8      70.0941        3.563   0.0000000  +0.0000000  25.3858     10.585
         9      74.0422      3.57392   0.0000000  +0.0000000  25.3263      3.471
        10       39.797      3.56664   0.0000000  +0.0000000  26.0004      2.340
        11      63.1282        3.563   0.0000000  +0.0000000  25.4994      4.957
        12      83.0146      3.57755   0.0000000  +0.0000000  25.2021      7.498
        13      33.8429      3.57392   0.0000000  +0.0000000  26.1763      2.292
        14      87.5805      3.56664   0.0000000  +0.0000000  25.1440      5.146
        15      122.401      3.56664   0.0000000  +0.0000000  24.7805      3.093
        16      114.932      3.55206   0.0000000  +0.0000000  24.8489      8.240
        17      21.9101      3.40274   0.0000000  +0.0000000  26.6484      2.534
        18      40.0447      3.55206   0.0000000  +0.0000000  25.9936      4.931
        19      67.7797       3.5484   0.0000000  +0.0000000  25.4223      2.248
        20      220.088      3.57028   0.0000000  +0.0000000  24.1435      2.663
        21      572.123      3.55571   0.0000000  +0.0000000  23.1063      2.725
        22       59.931      3.55936   0.0000000  +0.0000000  25.5559      4.078
        23      89.9388      3.57755   0.0000000  +0.0000000  25.1151      6.292
        24      430.342      3.55936   0.0000000  +0.0000000  23.4155      0.997
        25      38.6207      3.57755   0.0000000  +0.0000000  26.0329      5.347
        26      34.5043      3.57755   0.0000000  +0.0000000  26.1553      9.721
        27      62.1836      3.57392   0.0000000  +0.0000000  25.5158      2.559
        28      157.111      3.57755   0.0000000  +0.0000000  24.5095      4.113
        29      94.7767      3.55936   0.0000000  +0.0000000  25.0582      1.931
        30      131.141        3.563   0.0000000  +0.0000000  24.7057      2.579
        31      493.474      3.57755   0.0000000  +0.0000000  23.2668      1.136
        32      162.443      3.55936   0.0000000  +0.0000000  24.4732      0.513
        33        178.2      3.57755   0.0000000  +0.0000000  24.3727      0.465
        34      43.7391      3.54474   0.0000000  +0.0000000  25.8978      4.234
        35      62.8717      3.57392   0.0000000  +0.0000000  25.5039      3.151
        36      50.2432      3.57392   0.0000000  +0.0000000  25.7473      7.298
        37      66.8856      3.57755   0.0000000  +0.0000000  25.4367      3.518
        38      106.016      3.58117   0.0000000  +0.0000000  24.9366      3.008
        39      107.466      3.55936   0.0000000  +0.0000000  24.9218      4.539
        40      96.9619      3.55936   0.0000000  +0.0000000  25.0335    -12.529
        41      239.989      3.57392   0.0000000  +0.0000000  24.0495      4.262
        42      198.706      3.56664   0.0000000  +0.0000000  24.2545      4.168
        43      116.561      3.57755   0.0000000  +0.0000000  24.8336      5.392
        44        77.87      3.55936   0.0000000  +0.0000000  25.2716      4.529
        45      578.158      3.57392   0.0000000  +0.0000000  23.0949      2.063
        46      92.6096      3.56664   0.0000000  +0.0000000  25.0834      5.315
        47      61.2597      3.57755   0.0000000  +0.0000000  25.5321      5.660
        48      171.381        3.563   0.0000000  +0.0000000  24.4151      5.369
        49      44.6602      3.58117   0.0000000  +0.0000000  25.8752      3.299
        50       31.193      3.55936   0.0000000  +0.0000000  26.2649      2.719
        51      27.1083      3.55936   0.0000000  +0.0000000  26.4172      6.611
        52      50.7104        3.563   0.0000000  +0.0000000  25.7373      3.176
        53       299.36      3.55571   0.0000000  +0.0000000  23.8095      5.683
        54      203.667      3.57392   0.0000000  +0.0000000  24.2277      4.984
        55      34.0449      3.57755   0.0000000  +0.0000000  26.1699      1.953
        56      42.7359      3.57392   0.0000000  +0.0000000  25.9230      5.239
        57      89.6288        3.563   0.0000000  +0.0000000  25.1189      4.068
        58      37.4201      3.57392   0.0000000  +0.0000000  26.0672      8.016
        59      75.5493      3.55206   0.0000000  +0.0000000  25.3044      2.490
        60      60.6091        3.563   0.0000000  +0.0000000  25.5437      2.953
        61       47.099      3.57755   0.0000000  +0.0000000  25.8175      4.447
        62      81.9995       3.5484   0.0000000  +0.0000000  25.2155      3.608
        63      36.5577      3.57755   0.0000000  +0.0000000  26.0926      3.774
        64      53.8989      3.55936   0.0000000  +0.0000000  25.6711      5.141
        65      85.8269      3.57392   0.0000000  +0.0000000  25.1659      6.525
        66      111.647      3.57028   0.0000000  +0.0000000  24.8804      3.421
        67      51.3442      3.58117   0.0000000  +0.0000000  25.7238      4.261
        68      2114.42      3.58117   0.0000000  +0.0000000  21.6870      2.889
        69      44.3715      3.56664   0.0000000  +0.0000000  25.8822      5.866
        70      28.3384      3.56664   0.0000000  +0.0000000  26.3691      3.288
        71      43.2118      3.57028   0.0000000  +0.0000000  25.9110      5.027
        72      28.8296        3.563   0.0000000  +0.0000000  26.3504      3.421
        73      47.0216      3.55936   0.0000000  +0.0000000  25.8193      4.876
        74       31.561      3.57392   0.0000000  +0.0000000  26.2521      2.911
        75      33.1165      3.58117   0.0000000  +0.0000000  26.1999      1.814
        76      158.234      3.57028   0.0000000  +0.0000000  24.5018      3.034
        77      213.654      3.57392   0.0000000  +0.0000000  24.1757      7.178
        78      31.1771      3.57755   0.0000000  +0.0000000  26.2654      2.496
        79      154.094      3.57028   0.0000000  +0.0000000  24.5305      8.038
        80      60.2901      3.57392   0.0000000  +0.0000000  25.5494     13.000
        81      98.9461      3.57028   0.0000000  +0.0000000  25.0115      3.072
        82      62.7288      3.57755   0.0000000  +0.0000000  25.5063      6.355
        83      102.916      3.57028   0.0000000  +0.0000000  24.9688      7.043
        84      38.8491      3.56664   0.0000000  +0.0000000  26.0265      6.300
        85      70.1249        3.563   0.0000000  +0.0000000  25.3853     10.966
        86       120.59      3.57755   0.0000000  +0.0000000  24.7967    -36.006
        87      1787.32      3.57392   0.0000000  +0.0000000  21.8695      3.090
        88      21.4316      3.55206   0.0000000  +0.0000000  26.6724      5.284
        89      3457.65      3.57755   0.0000000  +0.0000000  21.1530      2.762
        90       38.211      3.57755   0.0000000  +0.0000000  26.0445      2.862
        91      1385.12      3.55936   0.0000000  +0.0000000  22.1463      1.149
        92      1390.69      3.57028   0.0000000  +0.0000000  22.1419      1.031
        93      61.0523      3.57755   0.0000000  +0.0000000  25.5357      2.960
        94       30.542      3.58117   0.0000000  +0.0000000  26.2878      7.596
        95      64.6574        3.563   0.0000000  +0.0000000  25.4735      4.377
        96      29.6416      3.55571   0.0000000  +0.0000000  26.3202      2.111
        97       283.11      3.55936   0.0000000  +0.0000000  23.8701      2.751
        98      277.036      3.57755   0.0000000  +0.0000000  23.8937      6.694
        99      137.956      3.58117   0.0000000  +0.0000000  24.6506      3.482
       100      156.314      3.55936   0.0000000  +0.0000000  24.5150      3.195
       101      55.2827      3.56664   0.0000000  +0.0000000  25.6435      3.858
       102      60.7108      3.57755   0.0000000  +0.0000000  25.5418      2.872
       103      96.0299      3.57392   0.0000000  +0.0000000  25.0440      4.909
       104        54.67      3.55571   0.0000000  +0.0000000  25.6556      9.471
       105      49.2758        3.563   0.0000000  +0.0000000  25.7684      2.609
       106      367.094      3.57755   0.0000000  +0.0000000  23.5881      0.775
       107      305.408      3.57028   0.0000000  +0.0000000  23.7878      0.621
       108       67.966      3.57755   0.0000000  +0.0000000  25.4193      3.594
       109      118.215      3.57392   0.0000000  +0.0000000  24.8183      4.467
       110      2954.06      3.57028   0.0000000  +0.0000000  21.3239      9.404
       111      74.3239      3.57755   0.0000000  +0.0000000  25.3222     82.545
       112      301.108      3.57755   0.0000000  +0.0000000  23.8032      4.594
       113      2583.32        3.563   0.0000000  +0.0000000  21.4696      2.812
       114      4343.08      3.57392   0.0000000  +0.0000000  20.9055      3.113
       115      137.744      3.57755   0.0000000  +0.0000000  24.6523     21.126
       116      79.1127      3.57755   0.0000000  +0.0000000  25.2544      2.501
       117      46.6824      3.57028   0.0000000  +0.0000000  25.8271      2.797
       118      57.8521      3.57392   0.0000000  +0.0000000  25.5942     13.999
       119      359.942      3.55206   0.0000000  +0.0000000  23.6094     24.045
       120      1075.73       3.5484   0.0000000  +0.0000000  22.4207      2.323
       121      88.4627      3.55936   0.0000000  +0.0000000  25.1331      3.994
       122      32.0328      3.57755   0.0000000  +0.0000000  26.2360      4.242
       123       42.017      3.55936   0.0000000  +0.0000000  25.9414      3.983
       124       43.642      3.57755   0.0000000  +0.0000000  25.9002      2.852
       125       138.18      3.57755   0.0000000  +0.0000000  24.6489     12.338
       126      59.9624      3.56664   0.0000000  +0.0000000  25.5553     16.324
       127      757.601      3.51163   0.0000000  +0.0000000  22.8014      2.725
       128         -293      3.56664   0.0000000  +0.0000000  99.0000      3.524
       129      35.6699      3.57028   0.0000000  +0.0000000  26.1192     13.800
       130      214.493      3.57755   0.0000000  +0.0000000  24.1715      7.429
       131      33.4769      3.55936   0.0000000  +0.0000000  26.1881      2.354
       132       30.504        3.563   0.0000000  +0.0000000  26.2891      3.767
       133      29.4179      3.58117   0.0000000  +0.0000000  26.3285      8.297
       134      41.3821      3.55936   0.0000000  +0.0000000  25.9580      2.292
       135      62.5396      3.57392   0.0000000  +0.0000000  25.5096      4.917
       136      259.406      3.55571   0.0000000  +0.0000000  23.9650      4.791
       137      236.387      3.57028   0.0000000  +0.0000000  24.0659      4.849
       138      147.606      3.56664   0.0000000  +0.0000000  24.5772     11.679
       139      45.2649        3.563   0.0000000  +0.0000000  25.8606      2.254
       140      32.3565      3.57028   0.0000000  +0.0000000  26.2251      7.675
       141      56.2593      3.55571   0.0000000  +0.0000000  25.6245      3.094
       142      50.4276      3.55936   0.0000000  +0.0000000  25.7433      9.433
       143      34.4613      3.57755   0.0000000  +0.0000000  26.1567      4.722
       144      31.3865      3.57392   0.0000000  +0.0000000  26.2581      4.855
       145       81.991      3.57755   0.0000000  +0.0000000  25.2156      6.050
       146      391.774      3.56664   0.0000000  +0.0000000  23.5174      5.595
       147      38.6399      3.57392   0.0000000  +0.0000000  26.0324      4.716
       148      43.9535      3.55936   0.0000000  +0.0000000  25.8925      2.255
       149      27.9509      3.55206   0.0000000  +0.0000000  26.3840      5.262
       150      23.4645      3.57392   0.0000000  +0.0000000  26.5740     18.483
       151      44.0136      3.56664   0.0000000  +0.0000000  25.8910     19.559
       152      71.5132      3.57755   0.0000000  +0.0000000  25.3640      5.274
       153      47.2929      3.57755   0.0000000  +0.0000000  25.8130      3.045
       154      28.0494      3.55571   0.0000000  +0.0000000  26.3802     16.840
       155      97.2838      3.57028   0.0000000  +0.0000000  25.0299      3.436
       156        33.62      3.57392   0.0000000  +0.0000000  26.1835     10.994
       157      47.0516      3.57392   0.0000000  +0.0000000  25.8186     12.623
       158      47.0019      3.55206   0.0000000  +0.0000000  25.8197     16.863
       159      47.3246      3.57028   0.0000000  +0.0000000  25.8123     18.789
       160      107.405      3.57755   0.0000000  +0.0000000  24.9224      5.092
       161       30.787      3.57392   0.0000000  +0.0000000  26.2791      5.604
       162      37.9135      3.55936   0.0000000  +0.0000000  26.0530     13.330
       163      36.1558      3.57028   0.0000000  +0.0000000  26.1046     13.997
       164      33.6925      3.55206   0.0000000  +0.0000000  26.1812     15.838
       165      23.4722      3.57755   0.0000000  +0.0000000  26.5736      8.220
       166      43.8027      3.57755   0.0000000  +0.0000000  25.8962      5.330
       167      91.7972      3.56664   0.0000000  +0.0000000  25.0929      4.927
       168      83.2338      3.55936   0.0000000  +0.0000000  25.1993      2.427
       169      96.2283      3.57755   0.0000000  +0.0000000  25.0417      4.466
       170      141.077        3.563   0.0000000  +0.0000000  24.6264      5.143
       171      33.8443      3.57028   0.0000000  +0.0000000  26.1763      6.470
       172      30.7107      3.57392   0.0000000  +0.0000000  26.2818     10.901
       173      41.1799      3.57392   0.0000000  +0.0000000  25.9633      7.830
       174      46.7003      3.57755   0.0000000  +0.0000000  25.8267      7.665
       175      144.372      3.57028   0.0000000  +0.0000000  24.6013      6.275
       176      359.786      3.58117   0.0000000  +0.0000000  23.6099      0.573
       177      31.3536      3.57028   0.0000000  +0.0000000  26.2593      2.111
       178      116.492      3.58117   0.0000000  +0.0000000  24.8343     12.107
       179      88.8062      3.55936   0.0000000  +0.0000000  25.1289      7.630
       180      36.3505      3.57392   0.0000000  +0.0000000  26.0987     11.546
       181       38.504      3.57392   0.0000000  +0.0000000  26.0362     10.626
       182      25.5683      3.55936   0.0000000  +0.0000000  26.4807      5.772
       183      37.1336      3.57028   0.0000000  +0.0000000  26.0756     17.332
       184      32.2077      3.57755   0.0000000  +0.0000000  26.2301     10.006
       185      95.2294      3.57028   0.0000000  +0.0000000  25.0531      2.611
       186      44.7822      3.57392   0.0000000  +0.0000000  25.8722     19.599
       187      153.602        3.563   0.0000000  +0.0000000  24.5340      4.616
       188      70.6936      3.56664   0.0000000  +0.0000000  25.3766      4.889
       189      31.4259        3.563   0.0000000  +0.0000000  26.2568      6.960
       190      31.1615      3.57755   0.0000000  +0.0000000  26.2660      4.128
       191      40.6637      3.57392   0.0000000  +0.0000000  25.9770      5.466
       192      33.7118      3.57755   0.0000000  +0.0000000  26.1805      7.368
       193      114.749      3.57755   0.0000000  +0.0000000  24.8506      2.338
       194      60.4554      3.55936   0.0000000  +0.0000000  25.5464      2.130
       195      67.0845      3.57392   0.0000000  +0.0000000  25.4334   -106.870
       196      30.7103      3.57028   0.0000000  +0.0000000  26.2818     14.590
       197      33.1256       3.5484   0.0000000  +0.0000000  26.1996      9.151
       198      53.6451      3.56664   0.0000000  +0.0000000  25.6762      3.134
       199      43.6442      3.57755   0.0000000  +0.0000000  25.9002      2.220
       200      235.116      3.55206   0.0000000  +0.0000000  24.0718      5.124
       201       518.96      3.57755   0.0000000  +0.0000000  23.2122      4.056
       202      38.3698      3.55936   0.0000000  +0.0000000  26.0400      8.069
       203       39.205      3.56664   0.0000000  +0.0000000  26.0166      3.780
       204      92.7372      3.57755   0.0000000  +0.0000000  25.0819      1.747
       205      54.1263      3.56664   0.0000000  +0.0000000  25.6665      8.199
       206      94.7438      3.57392   0.0000000  +0.0000000  25.0586      4.576
       207       30.889      3.56664   0.0000000  +0.0000000  26.2755      7.215
       208      30.6226      3.57755   0.0000000  +0.0000000  26.2849      2.902
       209      368.321      3.57028   0.0000000  +0.0000000  23.5844   -141.010
       210      508.136      3.55206   0.0000000  +0.0000000  23.2351   -124.726
       211      26.0027       3.5484   0.0000000  +0.0000000  26.4625      2.992
       212      29.1466      3.57028   0.0000000  +0.0000000  26.3385     10.665
       213       29.019      3.56664   0.0000000  +0.0000000  26.3433      5.616
       214      418.805      3.55936   0.0000000  +0.0000000  23.4450      0.796
       215      453.285      3.57028   0.0000000  +0.0000000  23.3591      0.938
       216      363.086      3.57755   0.0000000  +0.0000000  23.6000      0.903
       217      94.2946      3.57755   0.0000000  +0.0000000  25.0638     15.066
       218      502.757      3.57392   0.0000000  +0.0000000  23.2466      3.499
       219      265.831      3.57755   0.0000000  +0.0000000  23.9385      5.217
       220      35.2392      3.55571   0.0000000  +0.0000000  26.1324      2.844
       221      40.1739      3.57392   0.0000000  +0.0000000  25.9901      2.914
       222      35.3652      3.57392   0.0000000  +0.0000000  26.1286      5.953
       223       27.626      3.57755   0.0000000  +0.0000000  26.3967      7.478
       224      153.501      3.57755   0.0000000  +0.0000000  24.5347      2.939
       225      387.092        3.563   0.0000000  +0.0000000  23.5305      2.522
       226      29.4206      3.56664   0.0000000  +0.0000000  26.3284      1.938
       227      103.921      3.57392   0.0000000  +0.0000000  24.9582      4.498
       228       46.639      3.57755   0.0000000  +0.0000000  25.8281      6.924
       229      89.6415      3.57755   0.0000000  +0.0000000  25.1187      1.785
       230      71.4972      3.57028   0.0000000  +0.0000000  25.3643    -25.093
       231      203.341       3.5484   0.0000000  +0.0000000  24.2294      7.309
       232      60.4786      3.57755   0.0000000  +0.0000000  25.5460      4.482
       233      113.893      3.57755   0.0000000  +0.0000000  24.8588      7.354
       234      54.6101      3.57755   0.0000000  +0.0000000  25.6568      2.681
       235      65.9601      3.55936   0.0000000  +0.0000000  25.4518      3.313
       236      94.4922      3.57392   0.0000000  +0.0000000  25.0615      9.029
       237      71.6154      3.57755   0.0000000  +0.0000000  25.3625     12.774
       238       72.897      3.57392   0.0000000  +0.0000000  25.3432      2.578
       239      66.2275      3.57392   0.0000000  +0.0000000  25.4474      3.771
       240      184.722      3.57755   0.0000000  +0.0000000  24.3337      9.199
       241      27.7252      3.57755   0.0000000  +0.0000000  26.3928      3.256
       242      187.782      3.55571   0.0000000  +0.0000000  24.3159      3.656
       243      50.3963        3.563   0.0000000  +0.0000000  25.7440      2.226
       244      591.598      3.57392   0.0000000  +0.0000000  23.0699      0.716
       245      625.006      3.57028   0.0000000  +0.0000000  23.0103      0.773
       246      39.0639      3.55206   0.0000000  +0.0000000  26.0206      2.533
       247      172.318      3.55936   0.0000000  +0.0000000  24.4092      4.685
       248      53.5303        3.563   0.0000000  +0.0000000  25.6785      2.212
       249       134.15        3.563   0.0000000  +0.0000000  24.6810      2.706
       250      32.8638      3.57755   0.0000000  +0.0000000  26.2082      3.620
       251      30.9742      3.56664   0.0000000  +0.0000000  26.2725      4.447
       252      33.4631      3.57392   0.0000000  +0.0000000  26.1886      1.670
       253      34.0186       3.5484   0.0000000  +0.0000000  26.1707     14.756
       254      32.5783      3.57392   0.0000000  +0.0000000  26.2177      1.763
       255      38.6603      3.57392   0.0000000  +0.0000000  26.0318      2.893
       256       31.923      3.55571   0.0000000  +0.0000000  26.2397     21.905
       257       37.301      3.56664   0.0000000  +0.0000000  26.0707     26.829
       258      28.1441      3.58117   0.0000000  +0.0000000  26.3765     11.251
       259      29.1054      3.57392   0.0000000  +0.0000000  26.3401      8.644
       260      25.2815      3.56664   0.0000000  +0.0000000  26.4930     16.522
       261      34.0382      3.55571   0.0000000  +0.0000000  26.1701      5.523
       262       55.931      3.57392   0.0000000  +0.0000000  25.6309      9.326
       263      38.2821      3.56664   0.0000000  +0.0000000  26.0425     17.831
       264      86.2481        3.563   0.0000000  +0.0000000  25.1606      2.857
       265      33.8824      3.55206   0.0000000  +0.0000000  26.1751     12.882
       266      131.537      3.57755   0.0000000  +0.0000000  24.7024      8.043
       267      24.0349      3.57028   0.0000000  +0.0000000  26.5479      3.100
       268      24.6944      3.58117   0.0000000  +0.0000000  26.5185      2.782
       269       79.331      3.55936   0.0000000  +0.0000000  25.2514      3.169
       270      37.1204      3.57028   0.0000000  +0.0000000  26.0760      2.871
       271      29.1618      3.55206   0.0000000  +0.0000000  26.3380     10.707
       272      70.2277        3.563   0.0000000  +0.0000000  25.3837      2.475
       273      153.402      3.55936   0.0000000  +0.0000000  24.5354     12.645
       274      71.4925      3.57392   0.0000000  +0.0000000  25.3643      4.294
       275      87.9243      3.57755   0.0000000  +0.0000000  25.1397      3.633
       276      29.3335      3.57028   0.0000000  +0.0000000  26.3316      3.538
       277      43.3949      3.57392   0.0000000  +0.0000000  25.9064      2.230
       278      49.9046      3.57392   0.0000000  +0.0000000  25.7547      6.054
       279      40.2325      3.57392   0.0000000  +0.0000000  25.9886      6.367
       280      1740.36      3.57755   0.0000000  +0.0000000  21.8984      2.772
       281      78.2252      3.56664   0.0000000  +0.0000000  25.2666      3.203
       282      133.669      3.55206   0.0000000  +0.0000000  24.6849      3.333
       283      25.3919      3.56664   0.0000000  +0.0000000  26.4883      2.397
       284      30.9802      3.57755   0.0000000  +0.0000000  26.2723      5.445
       285      36.1237      3.57755   0.0000000  +0.0000000  26.1055      3.176
       286      51.6254       3.5484   0.0000000  +0.0000000  25.7178      2.604
       287      28.8573      3.55571   0.0000000  +0.0000000  26.3494     29.222
       288      70.0923      3.55206   0.0000000  +0.0000000  25.3858      3.683
       289      28.2443      3.57028   0.0000000  +0.0000000  26.3727      1.853
       290      24.0133      3.57755   0.0000000  +0.0000000  26.5489      3.468
       291      47.8736      3.56664   0.0000000  +0.0000000  25.7998     17.904
       292      30.8771      3.57392   0.0000000  +0.0000000  26.2759     22.429
       293      3044.51      3.57392   0.0000000  +0.0000000  21.2912      2.741
       294      53.6421      3.57392   0.0000000  +0.0000000  25.6762      9.993
       295      2144.35        3.563   0.0000000  +0.0000000  21.6718      2.709
       296      28.8286        3.563   0.0000000  +0.0000000  26.3504      5.682
       297      107.377      3.57755   0.0000000  +0.0000000  24.9227      5.912
       298      175.101      3.57392   0.0000000  +0.0000000  24.3918      3.480
       299      81.2318      3.57755   0.0000000  +0.0000000  25.2257      8.430
       300      34.6263      3.57755   0.0000000  +0.0000000  26.1515      4.093
       301      26.0618      3.58117   0.0000000  +0.0000000  26.4600      3.569
       302       1151.4      3.57755   0.0000000  +0.0000000  22.3469      2.265
       303      1264.05      3.58117   0.0000000  +0.0000000  22.2456      4.289
       304      31.6369      3.57392   0.0000000  +0.0000000  26.2495      9.661
       305      47.0419      3.56664   0.0000000  +0.0000000  25.8188      3.093
       306      44.7886      3.57755   0.0000000  +0.0000000  25.8721     11.625
       307      60.8738      3.57755   0.0000000  +0.0000000  25.5389     19.149
       308      36.4678      3.57028   0.0000000  +0.0000000  26.0952     20.453
       309      207.074        3.563   0.0000000  +0.0000000  24.2097     10.557
       310      32.9061      3.57755   0.0000000  +0.0000000  26.2068     14.555
       311      74.0949      3.55571   0.0000000  +0.0000000  25.3255      6.854
       312      31.6392       3.5484   0.0000000  +0.0000000  26.2494     19.277
       313      113.315      3.57755   0.0000000  +0.0000000  24.8643      2.679
       314      51.0922      3.57755   0.0000000  +0.0000000  25.7291      5.311
       315      22.8362      3.58117   0.0000000  +0.0000000  26.6034      6.747
       316      123.525      3.55936   0.0000000  +0.0000000  24.7706      3.922
       317      65.4652      3.57392   0.0000000  +0.0000000  25.4600      0.837
       318      32.9215       3.5484   0.0000000  +0.0000000  26.2063      2.568
       319      52.9315      3.57755   0.0000000  +0.0000000  25.6907      2.505
       320      86.6664      3.57755   0.0000000  +0.0000000  25.1554      4.665
       321       64.455      3.58117   0.0000000  +0.0000000  25.4769      1.037
       322      128.105      3.57392   0.0000000  +0.0000000  24.7311      4.719
       323      26.3147      3.57028   0.0000000  +0.0000000  26.4495      1.828
       324      35.9467      3.57755   0.0000000  +0.0000000  26.1109     12.819
       325      29.4443      3.56664   0.0000000  +0.0000000  26.3275     10.314
       326      58.8401      3.57755   0.0000000  +0.0000000  25.5758      8.368
       327      34.1878      3.57392   0.0000000  +0.0000000  26.1653      4.488
       328      30.7642      3.57392   0.0000000  +0.0000000  26.2799     10.905
       329      108.274      3.57755   0.0000000  +0.0000000  24.9137      3.209
       330      1249.71      3.55936   0.0000000  +0.0000000  22.2580      2.738
       331      26.5349      3.57755   0.0000000  +0.0000000  26.4405      6.253
       332      58.8146      3.57755   0.0000000  +0.0000000  25.5763     13.488
       333      30.8364      3.56664   0.0000000  +0.0000000  26.2773      2.973
       334      26.7567      3.55936   0.0000000  +0.0000000  26.4314      2.721
       335      24.0906      3.56664   0.0000000  +0.0000000  26.5454      5.780
       336      25.2116      3.56664   0.0000000  +0.0000000  26.4960      4.346
       337      26.6606      3.57392   0.0000000  +0.0000000  26.4353     12.844
       338      87.8793      3.57392   0.0000000  +0.0000000  25.1403      2.633
       339      28.4208      3.55936   0.0000000  +0.0000000  26.3659      2.119
       340      44.5325      3.55936   0.0000000  +0.0000000  25.8783      5.438
       341      97.3801      3.57755   0.0000000  +0.0000000  25.0288      3.499
       342      76.7674       3.5484   0.0000000  +0.0000000  25.2871      8.144
       343      29.6314        3.563   0.0000000  +0.0000000  26.3206      5.015
       344      35.0013      3.57392   0.0000000  +0.0000000  26.1398      2.355
       345      43.8603      3.57028   0.0000000  +0.0000000  25.8948      2.836
       346      46.2582      3.57392   0.0000000  +0.0000000  25.8370      3.400
       347      42.4224      3.57028   0.0000000  +0.0000000  25.9310      5.928
       348      81.2763      3.57392   0.0000000  +0.0000000  25.2251      0.646
       349      55.5345      3.55936   0.0000000  +0.0000000  25.6386      0.982
       350      77.4772      3.58117   0.0000000  +0.0000000  25.2771      3.312
       351      31.3901      3.57028   0.0000000  +0.0000000  26.2580      2.698
       352      24.8556      3.55936   0.0000000  +0.0000000  26.5114      4.148
       353      36.5268      3.55571   0.0000000  +0.0000000  26.0935      2.670
       354      58.4868      3.56664   0.0000000  +0.0000000  25.5824      4.982
       355      77.6346      3.57755   0.0000000  +0.0000000  25.2749     18.169
       356      172.273      3.57755   0.0000000  +0.0000000  24.4095      2.917
       357      29.9704      3.57392   0.0000000  +0.0000000  26.3083      2.457
       358      43.0245        3.563   0.0000000  +0.0000000  25.9157      2.322
       359      51.7224      3.57392   0.0000000  +0.0000000  25.7158      2.850
       360       1985.2      3.57028   0.0000000  +0.0000000  21.7555      2.757
       361      51.4952      3.57392   0.0000000  +0.0000000  25.7206      3.984
       362      195.524      3.55206   0.0000000  +0.0000000  24.2720      0.469
       363       61.852      3.55936   0.0000000  +0.0000000  25.5216      2.868
       364      165.455      3.57028   0.0000000  +0.0000000  24.4533      0.338
       365      28.0691      3.56664   0.0000000  +0.0000000  26.3794      4.263
       366      44.4223      3.57755   0.0000000  +0.0000000  25.8810      8.981
       367      445.055      3.55571   0.0000000  +0.0000000  23.3790      2.749
       368      85.9352      3.57392   0.0000000  +0.0000000  25.1646      4.161
       369       115.33      3.55936   0.0000000  +0.0000000  24.8451      4.990
       370      170.717      3.57392   0.0000000  +0.0000000  24.4193      4.229
       371      56.8573      3.55936   0.0000000  +0.0000000  25.6130      7.674
       372      23.7411      3.57755   0.0000000  +0.0000000  26.5612      4.935
       373       459.14      3.57755   0.0000000  +0.0000000  23.3451      3.323
       374      29.4634      3.57755   0.0000000  +0.0000000  26.3268      4.005
       375      32.7595      3.57028   0.0000000  +0.0000000  26.2117      7.729
       376      27.9087      3.57028   0.0000000  +0.0000000  26.3856      4.929
       377      29.0675      3.55936   0.0000000  +0.0000000  26.3415      4.296
       378      53.3736      3.57392   0.0000000  +0.0000000  25.6817      5.880
       379      72.9916      3.55936   0.0000000  +0.0000000  25.3418      6.265
       380      34.9757        3.563   0.0000000  +0.0000000  26.1406      2.694
       381      118.862      3.57755   0.0000000  +0.0000000  24.8124      7.140
       382      214.613      3.55936   0.0000000  +0.0000000  24.1709      5.279
       383      28.5049        3.563   0.0000000  +0.0000000  26.3627      2.914
       384      25.7863      3.30992   0.0000000  +0.0000000  26.4715      3.791
       385      1880.28      3.57028   0.0000000  +0.0000000  21.8144      2.748
       386      31.6449      3.55206   0.0000000  +0.0000000  26.2492      2.267
       387      38.4313      3.57392   0.0000000  +0.0000000  26.0383      5.540
       388      3739.02      3.57755   0.0000000  +0.0000000  21.0681      2.740
       389      43.7357      3.57755   0.0000000  +0.0000000  25.8979      3.583
       390      58.2947      3.55936   0.0000000  +0.0000000  25.5859      7.242
       391      201.212      3.57028   0.0000000  +0.0000000  24.2409      4.072
       392      40.5718      3.55571   0.0000000  +0.0000000  25.9794      2.474
       393      754.581      3.58117   0.0000000  +0.0000000  22.8057      2.658
       394      53.1705      3.57028   0.0000000  +0.0000000  25.6858      2.879
       395      155.392      3.56664   0.0000000  +0.0000000  24.5214      3.329
       396      353.607      3.55571   0.0000000  +0.0000000  23.6287      4.686
       397      36.1559      3.57392   0.0000000  +0.0000000  26.1046      6.559
       398      32.9907      3.57755   0.0000000  +0.0000000  26.2040      3.049
       399      45.1548      3.55206   0.0000000  +0.0000000  25.8632      3.182
       400      52.9035      3.57755   0.0000000  +0.0000000  25.6913      2.784
       401      370.968      3.55206   0.0000000  +0.0000000  23.5767      2.539
       402      61.4464      3.57392   0.0000000  +0.0000000  25.5288      2.896
       403       168.85      3.57755   0.0000000  +0.0000000  24.4312      2.441
       404      28.6109        3.563   0.0000000  +0.0000000  26.3587      4.914
       405      63.2918      3.58117   0.0000000  +0.0000000  25.4966      3.345
       406      522.001      3.57392   0.0000000  +0.0000000  23.2058      1.370
       407      570.809      3.57755   0.0000000  +0.0000000  23.1088      1.520
       408      60.0376        3.563   0.0000000  +0.0000000  25.5539      4.491
       409      118.484      3.57392   0.0000000  +0.0000000  24.8158      3.506
       410      148.074      3.57028   0.0000000  +0.0000000  24.5738      3.667
       411      86.5784       3.5484   0.0000000  +0.0000000  25.1565      2.325
       412       39.622      3.55936   0.0000000  +0.0000000  26.0052      2.997
       413      128.948        3.563   0.0000000  +0.0000000  24.7240      6.580
       414      31.3493      3.57392   0.0000000  +0.0000000  26.2594      2.340
       415      46.4388      3.57755   0.0000000  +0.0000000  25.8328      3.561
       416       34.619      3.57755   0.0000000  +0.0000000  26.1517      7.764
       417      100.218      3.55571   0.0000000  +0.0000000  24.9976      4.912
       418      680.806      3.57028   0.0000000  +0.0000000  22.9174      1.158
       419      787.113      3.55571   0.0000000  +0.0000000  22.7599      1.102
       420       118.13      3.55206   0.0000000  +0.0000000  24.8191      2.571
       421      28.7605        3.563   0.0000000  +0.0000000  26.3530      2.369
       422      30.6447      3.57028   0.0000000  +0.0000000  26.2841      2.871
       423      76.2625      3.56664   0.0000000  +0.0000000  25.2942      2.553
       424      35.4075       3.5484   0.0000000  +0.0000000  26.1273      3.584
       425      30.4291        3.563   0.0000000  +0.0000000  26.2918      4.067
       426      42.7369      3.55206   0.0000000  +0.0000000  25.9230      6.911
       427      39.7681      3.55571   0.0000000  +0.0000000  26.0012      2.959
       428      65.2816      3.57392   0.0000000  +0.0000000  25.4630      2.829
       429      55.0384      3.55936   0.0000000  +0.0000000  25.6483      6.144
       430      95.4723      3.57392   0.0000000  +0.0000000  25.0503      6.860
       431      55.1282      3.55571   0.0000000  +0.0000000  25.6466     15.307
       432      55.9113      3.57755   0.0000000  +0.0000000  25.6313      7.239
       433      35.1704      3.57755   0.0000000  +0.0000000  26.1346      4.616
       434      82.8888      3.57392   0.0000000  +0.0000000  25.2038      3.415
       435       34.725      3.57392   0.0000000  +0.0000000  26.1484      1.838
       436      126.292      3.57028   0.0000000  +0.0000000  24.7466      2.473
